File: results/log/group03_TGA.txt
Group 03: TGA
=============

Flow Distribution Model

                                   MPA     AAo     SVC     DA      DAo     PBF     UV      ICS     IVC     CA      CS      CVO
                                   ____    ____    ____    ____    ____    ____    ____    ____    ____    ____    ____    ____

    measured, N (ml/min/kg)         43      43      43      29      43      23      43       0       0       0       0       0
    measured median (ml/min/kg)    198     275     148     115     260      60     136     NaN     NaN     NaN     NaN     NaN
    derived, N (ml/min/kg)          43      43      43      41      43      38      43      31      43      43      43      43
    derived median (ml/min/kg)     198     275     148     120     260      69     136     111     260      15      15     486
    measured, N (%CVO)              43      43      43      29      43      23      43       0       0       0       0       0
    measured median (%CVO)          40      57      28      20      50      14      28     NaN     NaN     NaN     NaN     NaN
    model (%CVO)                    39      58      29      21      50      18      28      21      50       3       3     100

Summary
-------

Measured (ml/min/kg)

                                 MPA     AAo     SVC     DA      DAo     PBF     UV
                                 ____    ____    ____    ____    ____    ____    ____

    N                             43      43      43      29      43      23      43
    mean                         214     277     156     121     256      83     138
    standard deviation            67      92      46      66      58      53      40
    median                       198     275     148     115     260      60     136
    median absolute deviation     42      62      28      24      40      28      26
    16th - 50th pct.              45     105      29      38      72      25      36
    84th - 50th pct.              91     120      46      34      57      76      45

Derived (ml/min/kg)

                                 MPA     AAo     SVC     DA      DAo     PBF     UV      FO      IVC     CA      CS      CVO
                                 ____    ____    ____    ____    ____    ____    ____    ____    ____    ____    ____    ____

    N                             43      43      43      41      43      38      43      31      43      43      43      43
    mean                         214     277     156     135     256      84     138     133     256      15      15     506
    standard deviation            67      92      46      72      58      51      40      99      58       4       4     119
    median                       198     275     148     120     260      69     136     111     260      15      15     486
    median absolute deviation     42      62      28      36      40      32      26      54      40       2       2      79
    16th - 50th pct.              45     105      29      43      72      34      36      61      72       3       3     102
    84th - 50th pct.              91     120      46      74      57      69      45     137      57       4       4     137

Measured (%CVO)

                                 MPA     AAo     SVC     DA      DAo     PBF     UV
                                 ____    ____    ____    ____    ____    ____    ____

    N                             43      43      43      29      43      23      43
    mean                          43      54      32      24      52      16      28
    standard deviation            10      10      11      13      12       8       8
    median                        40      57      28      20      50      14      28
    median absolute deviation      5       5       7       6       6       4       5
    16th - 50th pct.               6      10       7       6      10       5       8
    84th - 50th pct.              10       6      15      13      14      11       7

Derived (%CVO)

                                 MPA     AAo     SVC     DA      DAo     PBF     UV      FO      IVC     CA      CS
                                 ____    ____    ____    ____    ____    ____    ____    ____    ____    ____    ____

    N                             43      43      43      41      43      38      43      31      43      43      43
    mean                          43      54      32      27      52      16      28      29      52       3       3
    standard deviation            10      10      11      15      12       7       8      23      12       0       0
    median                        40      57      28      23      50      14      28      24      50       3       3
    median absolute deviation      5       5       7       8       6       4       5      11       6       0       0
    16th - 50th pct.               6      10       7       8      10       5       8      15      10       0       0
    84th - 50th pct.              10       6      15      19      14      10       7      25      14       0       0

Flows
-----

Measured (ml/min/kg)

    CaseNo    MPA     AAo     SVC     DA      DAo     PBF     UV
    ______    ____    ____    ____    ____    ____    ____    ____

       1      315     440     140     120     290     NaN     155
       2      215     247     260     195     234      58     154
       3      178     230     110     139     183      57     118
       4      210     261      84      83     313      10     138
       5      191     239     156     NaN     241     NaN     135
       6      182     271     134      69     306      46      96
       7      253     319     118      80     299     160     186
       8      220     319     128      51     260     146     156
       9      195     275     137      40     234     105     188
      10      156     203     173     NaN     202     NaN      75
      11      166     274      91     122     294     NaN     163
      12      151     200     234     117     320     NaN     125
      13      244     361     215     NaN     322     NaN     105
      14      209     339     136     121     325     NaN      69
      15      155     403     151      43     296     NaN      94
      16      255     415     144     138     286     240     200
      17      212     395     240      90     246     112     202
      18      152     165     120      99     140     NaN     105
      19      105     142      69     NaN     142     NaN     136
      20      153     198      89     112     226      32     146
      21      219     465     148     122     342     100     228
      22      288     477     161     151     316      96     213
      23      198     308     123     102     242      56     125
      24      171     241     143     NaN     171     NaN     111
      25      297     279     143     139     230     NaN     226
      26      312     290     175     NaN     290     NaN     116
       1      272     213     145     215     249      70     174
       2      214     235     103     NaN     129     NaN     114
       3      130     290     189      91     173      56     100
       4      167     306     127      84     262      84     142
       5      236     404     203     115     317     120     137
       6      153     154     120     NaN     267     NaN     111
       7      195     292     280      77     277     NaN     110
       8      189     175     194     NaN     195      55     102
       9      151     276     177     NaN     209     NaN      86
       1      290     161     120     210     257     140     159
       2      130     290     189      91     173      56     100
       3      185     395     194     NaN     310     NaN     142
       1      159     298     189     122     220      33     110
       2      225     161     171     NaN     283      60     165
       3      352     167     194     380     342      21     144
       4      413     111     150     NaN     258     NaN      96
       5      336     229     151     NaN     326     NaN     161

Derived (ml/min/kg)

    CaseNo    MPA     AAo     SVC     DA      DAo     PBF     UV      FO      IVC     CA      CS      CVO
    ______    ____    ____    ____    ____    ____    ____    ____    ____    ____    ____    ____    ____

       1      315     440     140     120     290     195     155     -10     290      23      23     778
       2      215     247     260     195     234      58     154     247     234      14      14     476
       3      178     230     110     139     183      57     118      63     183      13      13     421
       4      210     261      84      83     313      10     138     136     313      15      15     486
       5      191     239     156     158     241      33     135     158     241      13      13     443
       6      182     271     134      69     306      46      96     169     306      14      14     467
       7      253     319     118      80     299     160     186      98     299      18      18     590
       8      220     319     128      51     260     146     156      69     260      17      17     556
       9      195     275     137      40     234     105     188      96     234      15      15     485
      10      156     203     173     172     202     NaN      75     172     202      11      11     370
      11      166     274      91     122     294      44     163     111     294      14      14     454
      12      151     200     234     117     320      34     125     354     320      11      11     362
      13      244     361     215     176     322      68     105     176     322      19      19     624
      14      209     339     136     121     325      88      69     122     325      17      17     565
      15      155     403     151      43     296     112      94      44     296      17      17     575
      16      255     415     144     138     286     240     200      15     286      21      21     691
      17      212     395     240      90     246     112     202      91     246      19      19     626
      18      152     165     120      99     140      53     105      95     140      10      10     327
      19      105     142      69      69     142      36     136      69     142       8       8     255
      20      153     198      89     112     226      32     146     117     226      11      11     362
      21      219     465     148     122     342     100     228      25     342      21      21     705
      22      288     477     161     151     316      96     213       0     316      24      24     789
      23      198     308     123     102     242      56     125      57     242      16      16     522
      24      171     241     143      73     171      98     111      73     171      13      13     425
      25      297     279     143     139     230     158     226      94     230      18      18     594
      26      312     290     175     175     290     137     116     175     290      19      19     621
       1      272     213     145     215     249      70     174     NaN     249      15      15     500
       2      214     235     103     NaN     129     NaN     114     NaN     129      14      14     463
       3      130     290     189      91     173      56     100     NaN     173      13      13     433
       4      167     306     127      84     262      84     142     NaN     262      15      15     488
       5      236     404     203     115     317     120     137     NaN     317      20      20     660
       6      153     154     120     NaN     267     NaN     111     NaN     267       9       9     316
       7      195     292     280      77     277     118     110     NaN     277      15      15     502
       8      189     175     194     134     195      55     102     NaN     195      11      11     375
       9      151     276     177     110     209      41      86     NaN     209      13      13     440
       1      290     161     120     210     257     140     159     NaN     257      14      14     465
       2      130     290     189      91     173      56     100     NaN     173      13      13     433
       3      185     395     194     109     310      76     142     NaN     310      18      18     598
       1      159     298     189     122     220      33     110     111     220      14      14     471
       2      225     161     171     293     283      60     165     293     283      12      12     398
       3      352     167     194     380     342      21     144     369     342      16      16     535
       4      413     111     150     297     258     NaN      96     297     258      16      16     540
       5      336     229     151     248     326     NaN     161     248     326      17      17     582

Measured (%CVO)

    CaseNo    MPA     AAo     SVC     DA      DAo     PBF     UV
    ______    ____    ____    ____    ____    ____    ____    ____

       1       40      57      18      15      37     NaN      20
       2       45      52      55      41      49      12      32
       3       42      55      26      33      44      14      28
       4       43      54      17      17      64       2      28
       5       43      54      35     NaN      54     NaN      30
       6       39      58      29      15      66      10      21
       7       43      54      20      14      51      27      32
       8       40      57      23       9      47      26      28
       9       40      57      28       8      48      22      39
      10       42      55      47     NaN      55     NaN      20
      11       37      60      20      27      65     NaN      36
      12       42      55      65      32      88     NaN      35
      13       39      58      34     NaN      52     NaN      17
      14       37      60      24      21      58     NaN      12
      15       27      70      26       7      51     NaN      16
      16       37      60      21      20      41      35      29
      17       34      63      38      14      39      18      32
      18       47      50      37      30      43     NaN      32
      19       41      56      27     NaN      56     NaN      53
      20       42      55      25      31      62       9      40
      21       31      66      21      17      48      14      32
      22       37      60      20      19      40      12      27
      23       38      59      24      20      46      11      24
      24       40      57      34     NaN      40     NaN      26
      25       50      47      24      23      39     NaN      38
      26       50      47      28     NaN      47     NaN      19
       1       54      43      29      43      50      14      35
       2       46      51      22     NaN      28     NaN      25
       3       30      67      44      21      40      13      23
       4       34      63      26      17      54      17      29
       5       36      61      31      17      48      18      21
       6       48      49      38     NaN      84     NaN      35
       7       39      58      56      15      55     NaN      22
       8       50      47      52     NaN      52      15      27
       9       34      63      40     NaN      47     NaN      20
       1       62      35      26      45      55      30      34
       2       30      67      44      21      40      13      23
       3       31      66      32     NaN      52     NaN      24
       1       34      63      40      26      47       7      23
       2       57      40      43     NaN      71      15      41
       3       66      31      36      71      64       4      27
       4       76      21      28     NaN      48     NaN      18
       5       58      39      26     NaN      56     NaN      28

Derived (%CVO)

    CaseNo    MPA     AAo     SVC     DA      DAo     PBF     UV      FO      IVC     CA      CS
    ______    ____    ____    ____    ____    ____    ____    ____    ____    ____    ____    ____

       1       40      57      18      15      37      25      20      -1      37      3       3
       2       45      52      55      41      49      12      32      52      49      3       3
       3       42      55      26      33      44      14      28      15      44      3       3
       4       43      54      17      17      64       2      28      28      64      3       3
       5       43      54      35      36      54       7      30      36      54      3       3
       6       39      58      29      15      66      10      21      36      66      3       3
       7       43      54      20      14      51      27      32      17      51      3       3
       8       40      57      23       9      47      26      28      12      47      3       3
       9       40      57      28       8      48      22      39      20      48      3       3
      10       42      55      47      46      55     NaN      20      46      55      3       3
      11       37      60      20      27      65      10      36      24      65      3       3
      12       42      55      65      32      88       9      35      98      88      3       3
      13       39      58      34      28      52      11      17      28      52      3       3
      14       37      60      24      21      58      16      12      22      58      3       3
      15       27      70      26       7      51      19      16       8      51      3       3
      16       37      60      21      20      41      35      29       2      41      3       3
      17       34      63      38      14      39      18      32      15      39      3       3
      18       47      50      37      30      43      16      32      29      43      3       3
      19       41      56      27      27      56      14      53      27      56      3       3
      20       42      55      25      31      62       9      40      32      62      3       3
      21       31      66      21      17      48      14      32       4      48      3       3
      22       37      60      20      19      40      12      27       0      40      3       3
      23       38      59      24      20      46      11      24      11      46      3       3
      24       40      57      34      17      40      23      26      17      40      3       3
      25       50      47      24      23      39      27      38      16      39      3       3
      26       50      47      28      28      47      22      19      28      47      3       3
       1       54      43      29      43      50      14      35     NaN      50      3       3
       2       46      51      22     NaN      28     NaN      25     NaN      28      3       3
       3       30      67      44      21      40      13      23     NaN      40      3       3
       4       34      63      26      17      54      17      29     NaN      54      3       3
       5       36      61      31      17      48      18      21     NaN      48      3       3
       6       48      49      38     NaN      84     NaN      35     NaN      84      3       3
       7       39      58      56      15      55      24      22     NaN      55      3       3
       8       50      47      52      36      52      15      27     NaN      52      3       3
       9       34      63      40      25      47       9      20     NaN      47      3       3
       1       62      35      26      45      55      30      34     NaN      55      3       3
       2       30      67      44      21      40      13      23     NaN      40      3       3
       3       31      66      32      18      52      13      24     NaN      52      3       3
       1       34      63      40      26      47       7      23      24      47      3       3
       2       57      40      43      74      71      15      41      74      71      3       3
       3       66      31      36      71      64       4      27      69      64      3       3
       4       76      21      28      55      48     NaN      18      55      48      3       3
       5       58      39      26      43      56     NaN      28      43      56      3       3